# From https://refractiveindex.info/
# REFERENCES:P. B. Johnson and R. W. Christy. Optical constants of transition metals: Ti, V, Cr, Mn, Fe, Co, Ni, and Pd, <a href="https://doi.org/10.1103/PhysRevB.9.5056"><i>Phys. Rev. B</i> <b>9</b>, 5056-5070 (1974)</a>
# COMMENTS:Room temperature
#
# wavelength(nm) eta
192.0 1.35
195.0 1.42
199.0 1.45
203.0 1.47
207.0 1.49
212.0 1.47
216.0 1.47
221.0 1.47
226.0 1.47
231.0 1.48
237.0 1.48
243.0 1.5
249.0 1.51
255.0 1.53
262.0 1.56
269.0 1.59
276.0 1.62
284.0 1.64
292.0 1.65
301.0 1.67
311.0 1.69
320.0 1.74
332.0 1.78
342.0 1.85
354.0 1.93
368.0 2.02
381.0 2.12
397.0 2.24
413.0 2.35
431.0 2.48
451.0 2.59
471.0 2.67
496.0 2.74
521.0 2.86
549.0 2.95
582.0 2.94
617.0 2.88
659.0 2.92
704.0 2.86
756.0 2.87
821.0 2.94
892.0 2.96
984.0 2.92
1088.0 2.97
1216.0 3.03
1393.0 3.09
1610.0 3.11
1937.0 3.17
